Time [min]	Location.[0].ElevationAngle [Deg]	Location.[0].AzimuthAngle [Deg]
90720	-71.1056	250.125
90721	-71.3406	249.878
90722	-71.5753	249.625
90723	-71.8095	249.365
90724	-72.0434	249.098
90725	-72.2768	248.824
90726	-72.5098	248.542
90727	-72.7424	248.253
90728	-72.9744	247.955
90729	-73.206	247.649
90730	-73.4371	247.334
90731	-73.6676	247.011
90732	-73.8975	246.677
90733	-74.1269	246.334
90734	-74.3557	245.981
90735	-74.5838	245.617
90736	-74.8113	245.242
90737	-75.0381	244.855
90738	-75.2642	244.456
90739	-75.4895	244.045
90740	-75.714	243.62
90741	-75.9376	243.182
90742	-76.1604	242.729
90743	-76.3823	242.262
90744	-76.6032	241.778
90745	-76.8231	241.278
90746	-77.0419	240.761
90747	-77.2596	240.227
90748	-77.4762	239.673
90749	-77.6915	239.1
90750	-77.9054	238.506
90751	-78.1181	237.89
90752	-78.3292	237.252
90753	-78.5389	236.59
90754	-78.7469	235.904
90755	-78.9532	235.191
90756	-79.1577	234.452
90757	-79.3603	233.683
90758	-79.5608	232.885
90759	-79.7593	232.055
90760	-79.9554	231.193
90761	-80.1492	230.296
90762	-80.3404	229.363
90763	-80.5289	228.392
90764	-80.7146	227.382
90765	-80.8972	226.331
90766	-81.0765	225.237
90767	-81.2525	224.098
90768	-81.4248	222.913
90769	-81.5933	221.679
90770	-81.7576	220.396
90771	-81.9176	219.06
90772	-82.073	217.671
90773	-82.2235	216.228
90774	-82.3688	214.728
90775	-82.5087	213.17
90776	-82.6428	211.555
90777	-82.7707	209.88
90778	-82.8922	208.147
90779	-83.0069	206.354
90780	-83.1145	204.504
90781	-83.2147	202.597
90782	-83.307	200.635
90783	-83.3913	198.62
90784	-83.4671	196.555
90785	-83.5342	194.445
90786	-83.5923	192.293
90787	-83.6411	190.105
90788	-83.6804	187.887
90789	-83.7102	185.644
90790	-83.7301	183.383
90791	-83.7402	181.111
90792	-83.7403	178.836
90793	-83.7306	176.564
90794	-83.7109	174.302
90795	-83.6815	172.059
90796	-83.6424	169.839
90797	-83.5939	167.65
90798	-83.5361	165.497
90799	-83.4693	163.386
90800	-83.3937	161.32
90801	-83.3097	159.303
90802	-83.2176	157.339
90803	-83.1177	155.43
90804	-83.0103	153.578
90805	-82.8958	151.784
90806	-82.7745	150.049
90807	-82.6467	148.373
90808	-82.5128	146.755
90809	-82.3731	145.196
90810	-82.228	143.694
90811	-82.0776	142.249
90812	-81.9224	140.858
90813	-81.7625	139.521
90814	-81.5983	138.236
90815	-81.4299	137.001
90816	-81.2577	135.814
90817	-81.0819	134.674
90818	-80.9026	133.579
90819	-80.7201	132.526
90820	-80.5345	131.515
90821	-80.3461	130.543
90822	-80.1549	129.609
90823	-79.9613	128.711
90824	-79.7652	127.847
90825	-79.5668	127.017
90826	-79.3663	126.217
90827	-79.1637	125.448
90828	-78.9593	124.707
90829	-78.753	123.994
90830	-78.545	123.307
90831	-78.3355	122.644
90832	-78.1243	122.005
90833	-77.9117	121.389
90834	-77.6978	120.795
90835	-77.4825	120.221
90836	-77.266	119.666
90837	-77.0483	119.131
90838	-76.8295	118.613
90839	-76.6096	118.113
90840	-76.3888	117.629
90841	-76.1669	117.161
90842	-75.9441	116.708
90843	-75.7205	116.269
90844	-75.496	115.844
90845	-75.2707	115.432
90846	-75.0447	115.033
90847	-74.8179	114.646
90848	-74.5904	114.27
90849	-74.3623	113.906
90850	-74.1335	113.552
90851	-73.9042	113.209
90852	-73.6742	112.875
90853	-73.4437	112.551
90854	-73.2126	112.236
90855	-72.981	111.93
90856	-72.749	111.632
90857	-72.5164	111.342
90858	-72.2834	111.06
90859	-72.05	110.786
90860	-71.8162	110.519
90861	-71.5819	110.258
90862	-71.3473	110.005
90863	-71.1122	109.758
90864	-70.8769	109.517
90865	-70.6411	109.282
90866	-70.4051	109.053
90867	-70.1687	108.83
90868	-69.932	108.612
90869	-69.695	108.399
90870	-69.4577	108.192
90871	-69.2201	107.989
90872	-68.9823	107.791
90873	-68.7442	107.598
90874	-68.5058	107.409
90875	-68.2672	107.224
90876	-68.0284	107.044
90877	-67.7893	106.867
90878	-67.55	106.695
90879	-67.3105	106.526
90880	-67.0708	106.361
90881	-66.8309	106.199
90882	-66.5907	106.041
90883	-66.3504	105.887
90884	-66.11	105.735
90885	-65.8693	105.587
90886	-65.6285	105.442
90887	-65.3875	105.3
90888	-65.1463	105.16
90889	-64.905	105.024
90890	-64.6635	104.89
90891	-64.4219	104.759
90892	-64.1801	104.631
90893	-63.9382	104.505
90894	-63.6962	104.381
90895	-63.454	104.26
90896	-63.2117	104.141
90897	-62.9692	104.025
90898	-62.7267	103.91
90899	-62.484	103.798
90900	-62.2412	103.688
90901	-61.9983	103.58
90902	-61.7553	103.474
90903	-61.5121	103.37
90904	-61.2689	103.267
90905	-61.0256	103.167
90906	-60.7821	103.068
90907	-60.5386	102.972
90908	-60.295	102.876
90909	-60.0513	102.783
90910	-59.8075	102.691
90911	-59.5636	102.601
90912	-59.3196	102.512
90913	-59.0755	102.425
90914	-58.8314	102.339
90915	-58.5872	102.255
90916	-58.3429	102.172
90917	-58.0985	102.091
90918	-57.854	102.011
90919	-57.6095	101.932
90920	-57.3649	101.855
90921	-57.1203	101.779
90922	-56.8755	101.704
90923	-56.6307	101.63
90924	-56.3859	101.557
90925	-56.1409	101.486
90926	-55.8959	101.416
90927	-55.6509	101.347
90928	-55.4058	101.279
90929	-55.1606	101.212
90930	-54.9154	101.146
90931	-54.6701	101.081
90932	-54.4248	101.017
90933	-54.1794	100.954
90934	-53.934	100.892
90935	-53.6885	100.831
90936	-53.4429	100.771
90937	-53.1973	100.712
90938	-52.9517	100.654
90939	-52.706	100.597
90940	-52.4603	100.54
90941	-52.2145	100.485
90942	-51.9687	100.43
90943	-51.7228	100.376
90944	-51.4769	100.323
90945	-51.231	100.27
90946	-50.985	100.219
90947	-50.739	100.168
90948	-50.4929	100.117
90949	-50.2468	100.068
90950	-50.0007	100.019
90951	-49.7545	99.9713
90952	-49.5083	99.924
90953	-49.262	99.8774
90954	-49.0157	99.8314
90955	-48.7694	99.7861
90956	-48.5231	99.7414
90957	-48.2767	99.6974
90958	-48.0302	99.6539
90959	-47.7838	99.6111
90960	-47.5373	99.5689
90961	-47.2908	99.5273
90962	-47.0443	99.4863
90963	-46.7977	99.4458
90964	-46.5511	99.4059
90965	-46.3045	99.3665
90966	-46.0578	99.3277
90967	-45.8111	99.2895
90968	-45.5644	99.2517
90969	-45.3177	99.2145
90970	-45.0709	99.1778
90971	-44.8241	99.1416
90972	-44.5773	99.1059
90973	-44.3304	99.0706
90974	-44.0836	99.0359
90975	-43.8367	99.0016
90976	-43.5898	98.9678
90977	-43.3428	98.9345
90978	-43.0959	98.9016
90979	-42.8489	98.8691
90980	-42.6019	98.8371
90981	-42.3549	98.8055
90982	-42.1078	98.7744
90983	-41.8607	98.7437
90984	-41.6137	98.7134
90985	-41.3666	98.6835
90986	-41.1194	98.654
90987	-40.8723	98.6249
90988	-40.6251	98.5961
90989	-40.3779	98.5678
90990	-40.1307	98.5399
90991	-39.8835	98.5123
90992	-39.6363	98.4851
90993	-39.389	98.4583
90994	-39.1417	98.4318
90995	-38.8944	98.4057
90996	-38.6471	98.38
90997	-38.3998	98.3545
90998	-38.1525	98.3295
90999	-37.9051	98.3048
91000	-37.6577	98.2804
91001	-37.4104	98.2563
91002	-37.1629	98.2325
91003	-36.9155	98.2091
91004	-36.6681	98.186
91005	-36.4206	98.1632
91006	-36.1732	98.1408
91007	-35.9257	98.1186
91008	-35.6782	98.0967
91009	-35.4307	98.0752
91010	-35.1832	98.0539
91011	-34.9357	98.0329
91012	-34.6881	98.0122
91013	-34.4406	97.9918
91014	-34.193	97.9717
91015	-33.9454	97.9518
91016	-33.6978	97.9322
91017	-33.4502	97.9129
91018	-33.2026	97.8939
91019	-32.955	97.8752
91020	-32.7074	97.8567
91021	-32.4597	97.8384
91022	-32.212	97.8204
91023	-31.9644	97.8027
91024	-31.7167	97.7852
91025	-31.469	97.768
91026	-31.2213	97.751
91027	-30.9736	97.7343
91028	-30.7259	97.7178
91029	-30.4781	97.7015
91030	-30.2304	97.6855
91031	-29.9826	97.6697
91032	-29.7349	97.6542
91033	-29.4871	97.6389
91034	-29.2393	97.6238
91035	-28.9915	97.6089
91036	-28.7437	97.5942
91037	-28.4959	97.5798
91038	-28.2481	97.5656
91039	-28.0003	97.5516
91040	-27.7525	97.5379
91041	-27.5046	97.5243
91042	-27.2568	97.5109
91043	-27.0089	97.4978
91044	-26.7611	97.4849
91045	-26.5132	97.4721
91046	-26.2653	97.4596
91047	-26.0174	97.4473
91048	-25.7696	97.4352
91049	-25.5217	97.4233
91050	-25.2738	97.4115
91051	-25.0258	97.4
91052	-24.7779	97.3887
91053	-24.53	97.3775
91054	-24.2821	97.3666
91055	-24.0341	97.3558
91056	-23.7862	97.3452
91057	-23.5382	97.3348
91058	-23.2903	97.3246
91059	-23.0423	97.3146
91060	-22.7944	97.3047
91061	-22.5464	97.2951
91062	-22.2984	97.2856
91063	-22.0504	97.2763
91064	-21.8025	97.2671
91065	-21.5545	97.2582
91066	-21.3065	97.2494
91067	-21.0585	97.2408
91068	-20.8105	97.2323
91069	-20.5624	97.2241
91070	-20.3144	97.216
91071	-20.0664	97.208
91072	-19.8184	97.2002
91073	-19.5703	97.1926
91074	-19.3223	97.1852
91075	-19.0743	97.1779
91076	-18.8262	97.1708
91077	-18.5782	97.1639
91078	-18.3301	97.1571
91079	-18.0821	97.1505
91080	-17.834	97.144
91081	-17.586	97.1377
91082	-17.3379	97.1315
91083	-17.0898	97.1255
91084	-16.8418	97.1197
91085	-16.5937	97.114
91086	-16.3456	97.1084
91087	-16.0975	97.1031
91088	-15.8494	97.0978
91089	-15.6013	97.0927
91090	-15.3533	97.0878
91091	-15.1052	97.083
91092	-14.8571	97.0784
91093	-14.609	97.0739
91094	-14.3609	97.0696
91095	-14.1128	97.0654
91096	-13.8647	97.0614
91097	-13.6165	97.0575
91098	-13.3684	97.0537
91099	-13.1203	97.0501
91100	-12.8722	97.0466
91101	-12.6241	97.0433
91102	-12.376	97.0401
91103	-12.1279	97.0371
91104	-11.8797	97.0342
91105	-11.6316	97.0315
91106	-11.3835	97.0289
91107	-11.1354	97.0264
91108	-10.8872	97.0241
91109	-10.6391	97.0219
91110	-10.391	97.0198
91111	-10.1428	97.0179
91112	-9.89471	97.0161
91113	-9.64657	97.0145
91114	-9.39844	97.013
91115	-9.1503	97.0116
91116	-8.90217	97.0104
91117	-8.65403	97.0093
91118	-8.40589	97.0084
91119	-8.15775	97.0075
91120	-7.90961	97.0069
91121	-7.66147	97.0063
91122	-7.41333	97.0059
91123	-7.16519	97.0056
91124	-6.91705	97.0055
91125	-6.66891	97.0055
91126	-6.42077	97.0056
91127	-6.17263	97.0058
91128	-5.92449	97.0062
91129	-5.67635	97.0068
91130	-5.42821	97.0074
91131	-5.18007	97.0082
91132	-4.93193	97.0091
91133	-4.68379	97.0102
91134	-4.43565	97.0114
91135	-4.18751	97.0127
91136	-3.93937	97.0142
91137	-3.69123	97.0157
91138	-3.44309	97.0175
91139	-3.19496	97.0193
91140	-2.94682	97.0213
91141	-2.69869	97.0234
91142	-2.45056	97.0257
91143	-2.20242	97.0281
91144	-1.95429	97.0306
91145	-1.70616	97.0332
91146	-1.45803	97.036
91147	-1.20991	97.0389
91148	-0.961782	97.0419
91149	-0.713658	97.0451
91150	-0.465535	97.0484
91151	-0.217415	97.0519
91152	0.0307045	97.0554
91153	0.278822	97.0592
91154	0.526937	97.063
91155	0.775051	97.067
91156	1.02316	97.0711
91157	1.27127	97.0753
91158	1.51938	97.0797
91159	1.76748	97.0842
91160	2.01559	97.0888
91161	2.26369	97.0936
91162	2.51178	97.0985
91163	2.75988	97.1036
91164	3.00797	97.1088
91165	3.25606	97.1141
91166	3.50415	97.1195
91167	3.75223	97.1251
91168	4.00031	97.1309
91169	4.24839	97.1367
91170	4.49647	97.1427
91171	4.74454	97.1489
91172	4.99261	97.1551
91173	5.24067	97.1615
91174	5.48874	97.1681
91175	5.7368	97.1748
91176	5.98485	97.1816
91177	6.2329	97.1886
91178	6.48095	97.1957
91179	6.729	97.2029
91180	6.97704	97.2103
91181	7.22507	97.2179
91182	7.4731	97.2255
91183	7.72113	97.2334
91184	7.96916	97.2413
91185	8.21718	97.2494
91186	8.46519	97.2577
91187	8.7132	97.2661
91188	8.96121	97.2746
91189	9.20921	97.2833
91190	9.45721	97.2921
91191	9.7052	97.3011
91192	9.95319	97.3102
91193	10.2012	97.3195
91194	10.4491	97.3289
91195	10.6971	97.3385
91196	10.9451	97.3483
91197	11.193	97.3581
91198	11.441	97.3682
91199	11.689	97.3783
91200	11.9369	97.3887
91201	12.1848	97.3992
91202	12.4328	97.4098
91203	12.6807	97.4206
91204	12.9286	97.4316
91205	13.1765	97.4427
91206	13.4245	97.454
91207	13.6724	97.4654
91208	13.9203	97.477
91209	14.1681	97.4888
91210	14.416	97.5007
91211	14.6639	97.5128
91212	14.9118	97.5251
91213	15.1596	97.5375
91214	15.4075	97.5501
91215	15.6553	97.5628
91216	15.9032	97.5757
91217	16.151	97.5888
91218	16.3988	97.6021
91219	16.6467	97.6155
91220	16.8945	97.6291
91221	17.1423	97.6429
91222	17.3901	97.6569
91223	17.6379	97.671
91224	17.8857	97.6853
91225	18.1334	97.6998
91226	18.3812	97.7145
91227	18.6289	97.7293
91228	18.8767	97.7444
91229	19.1244	97.7596
91230	19.3722	97.775
91231	19.6199	97.7906
91232	19.8676	97.8064
91233	20.1153	97.8223
91234	20.363	97.8385
91235	20.6107	97.8549
91236	20.8583	97.8714
91237	21.106	97.8882
91238	21.3537	97.9051
91239	21.6013	97.9223
91240	21.8489	97.9396
91241	22.0966	97.9572
91242	22.3442	97.9749
91243	22.5918	97.9929
91244	22.8394	98.0111
91245	23.0869	98.0294
91246	23.3345	98.048
91247	23.5821	98.0668
91248	23.8296	98.0859
91249	24.0772	98.1051
91250	24.3247	98.1246
91251	24.5722	98.1442
91252	24.8197	98.1642
91253	25.0672	98.1843
91254	25.3147	98.2046
91255	25.5621	98.2252
91256	25.8096	98.2461
91257	26.057	98.2671
91258	26.3044	98.2884
91259	26.5518	98.3099
91260	26.7992	98.3317
91261	27.0466	98.3537
91262	27.294	98.376
91263	27.5413	98.3985
91264	27.7887	98.4212
91265	28.036	98.4443
91266	28.2833	98.4675
91267	28.5306	98.491
91268	28.7779	98.5148
91269	29.0252	98.5389
91270	29.2724	98.5632
91271	29.5197	98.5878
91272	29.7669	98.6127
91273	30.0141	98.6378
91274	30.2613	98.6632
91275	30.5084	98.6889
91276	30.7556	98.7149
91277	31.0027	98.7411
91278	31.2498	98.7677
91279	31.4969	98.7946
91280	31.744	98.8217
91281	31.9911	98.8492
91282	32.2381	98.8769
91283	32.4852	98.905
91284	32.7322	98.9333
91285	32.9792	98.962
91286	33.2261	98.991
91287	33.4731	99.0204
91288	33.72	99.05
91289	33.9669	99.08
91290	34.2138	99.1103
91291	34.4607	99.141
91292	34.7076	99.172
91293	34.9544	99.2033
91294	35.2012	99.235
91295	35.448	99.2671
91296	35.6947	99.2995
91297	35.9415	99.3322
91298	36.1882	99.3654
91299	36.4349	99.3989
91300	36.6815	99.4328
91301	36.9282	99.4671
91302	37.1748	99.5017
91303	37.4214	99.5368
91304	37.668	99.5722
91305	37.9145	99.6081
91306	38.161	99.6443
91307	38.4075	99.681
91308	38.654	99.7181
91309	38.9004	99.7556
91310	39.1468	99.7936
91311	39.3932	99.832
91312	39.6396	99.8708
91313	39.8859	99.9101
91314	40.1322	99.9498
91315	40.3785	99.99
91316	40.6247	100.031
91317	40.8709	100.072
91318	41.1171	100.113
91319	41.3632	100.156
91320	41.6093	100.198
91321	41.8554	100.241
91322	42.1014	100.285
91323	42.3475	100.329
91324	42.5934	100.374
91325	42.8394	100.419
91326	43.0853	100.465
91327	43.3311	100.511
91328	43.577	100.558
91329	43.8228	100.605
91330	44.0685	100.653
91331	44.3142	100.702
91332	44.5599	100.751
91333	44.8055	100.8
91334	45.0511	100.851
91335	45.2967	100.902
91336	45.5422	100.953
91337	45.7877	101.006
91338	46.0331	101.059
91339	46.2785	101.112
91340	46.5238	101.166
91341	46.7691	101.221
91342	47.0144	101.277
91343	47.2596	101.333
91344	47.5047	101.39
91345	47.7498	101.448
91346	47.9949	101.506
91347	48.2399	101.566
91348	48.4848	101.626
91349	48.7297	101.687
91350	48.9746	101.748
91351	49.2193	101.81
91352	49.4641	101.874
91353	49.7087	101.938
91354	49.9534	102.003
91355	50.1979	102.068
91356	50.4424	102.135
91357	50.6869	102.203
91358	50.9312	102.271
91359	51.1755	102.341
91360	51.4198	102.411
91361	51.664	102.482
91362	51.9081	102.554
91363	52.1521	102.628
91364	52.3961	102.702
91365	52.64	102.777
91366	52.8838	102.854
91367	53.1276	102.931
91368	53.3713	103.01
91369	53.6149	103.09
91370	53.8584	103.171
91371	54.1018	103.253
91372	54.3452	103.336
91373	54.5885	103.42
91374	54.8317	103.506
91375	55.0748	103.593
91376	55.3178	103.681
91377	55.5607	103.771
91378	55.8035	103.862
91379	56.0463	103.954
91380	56.2889	104.047
91381	56.5314	104.143
91382	56.7739	104.239
91383	57.0162	104.337
91384	57.2584	104.437
91385	57.5005	104.538
91386	57.7426	104.641
91387	57.9844	104.745
91388	58.2262	104.851
91389	58.4679	104.959
91390	58.7094	105.068
91391	58.9508	105.179
91392	59.1921	105.292
91393	59.4333	105.407
91394	59.6743	105.524
91395	59.9152	105.643
91396	60.1559	105.764
91397	60.3965	105.886
91398	60.637	106.011
91399	60.8773	106.138
91400	61.1174	106.267
91401	61.3574	106.399
91402	61.5972	106.533
91403	61.8369	106.669
91404	62.0763	106.807
91405	62.3157	106.948
91406	62.5548	107.092
91407	62.7937	107.238
91408	63.0325	107.387
91409	63.2711	107.538
91410	63.5094	107.692
91411	63.7476	107.85
91412	63.9855	108.01
91413	64.2232	108.173
91414	64.4607	108.339
91415	64.698	108.509
91416	64.935	108.682
91417	65.1718	108.858
91418	65.4084	109.038
91419	65.6447	109.221
91420	65.8807	109.408
91421	66.1164	109.599
91422	66.3519	109.793
91423	66.5871	109.992
91424	66.8219	110.195
91425	67.0565	110.402
91426	67.2908	110.613
91427	67.5247	110.829
91428	67.7583	111.049
91429	67.9915	111.274
91430	68.2244	111.504
91431	68.4569	111.74
91432	68.689	111.98
91433	68.9208	112.226
91434	69.1521	112.477
91435	69.383	112.734
91436	69.6135	112.997
91437	69.8435	113.266
91438	70.073	113.542
91439	70.3021	113.824
91440	70.5306	114.112
91441	70.7587	114.408
91442	70.9862	114.711
91443	71.2131	115.021
91444	71.4395	115.339
91445	71.6652	115.664
91446	71.8904	115.998
91447	72.1149	116.341
91448	72.3387	116.692
91449	72.5618	117.053
91450	72.7842	117.423
91451	73.0059	117.802
91452	73.2267	118.192
91453	73.4468	118.592
91454	73.666	119.003
91455	73.8843	119.426
91456	74.1018	119.86
91457	74.3182	120.306
91458	74.5337	120.765
91459	74.7481	121.236
91460	74.9615	121.722
91461	75.1737	122.221
91462	75.3848	122.735
91463	75.5946	123.264
91464	75.8031	123.809
91465	76.0103	124.37
91466	76.2161	124.948
91467	76.4204	125.544
91468	76.6232	126.158
91469	76.8244	126.791
91470	77.024	127.443
91471	77.2217	128.116
91472	77.4177	128.81
91473	77.6117	129.526
91474	77.8036	130.265
91475	77.9935	131.027
91476	78.1812	131.814
91477	78.3665	132.627
91478	78.5494	133.465
91479	78.7297	134.331
91480	78.9074	135.225
91481	79.0822	136.147
91482	79.2541	137.1
91483	79.4229	138.084
91484	79.5885	139.099
91485	79.7507	140.147
91486	79.9093	141.228
91487	80.0642	142.343
91488	80.2151	143.494
91489	80.362	144.68
91490	80.5046	145.902
91491	80.6427	147.161
91492	80.7761	148.458
91493	80.9046	149.792
91494	81.0281	151.163
91495	81.1462	152.572
91496	81.2588	154.018
91497	81.3657	155.501
91498	81.4666	157.021
91499	81.5613	158.575
91500	81.6496	160.164
91501	81.7314	161.786
91502	81.8064	163.438
91503	81.8744	165.12
91504	81.9352	166.829
91505	81.9888	168.562
91506	82.0349	170.317
91507	82.0734	172.091
91508	82.1042	173.88
91509	82.1272	175.682
91510	82.1423	177.492
91511	82.1496	179.308
91512	82.1489	181.125
91513	82.1403	182.94
91514	82.1238	184.749
91515	82.0995	186.549
91516	82.0673	188.336
91517	82.0275	190.107
91518	81.9802	191.858
91519	81.9254	193.587
91520	81.8633	195.292
91521	81.7941	196.969
91522	81.7179	198.616
91523	81.635	200.233
91524	81.5456	201.816
91525	81.4498	203.364
91526	81.3478	204.878
91527	81.24	206.354
91528	81.1264	207.794
91529	81.0074	209.197
91530	80.883	210.562
91531	80.7536	211.889
91532	80.6194	213.179
91533	80.4805	214.432
91534	80.3372	215.649
91535	80.1896	216.829
91536	80.038	217.973
91537	79.8824	219.083
91538	79.7232	220.158
91539	79.5604	221.2
91540	79.3943	222.21
91541	79.2249	223.188
91542	79.0525	224.136
91543	78.8772	225.053
91544	78.6991	225.942
91545	78.5183	226.803
91546	78.3349	227.637
91547	78.1492	228.445
91548	77.9612	229.228
91549	77.7709	229.987
91550	77.5786	230.722
91551	77.3842	231.434
91552	77.188	232.124
91553	76.9899	232.794
91554	76.7901	233.443
91555	76.5886	234.072
91556	76.3855	234.683
91557	76.1809	235.276
91558	75.9749	235.851
91559	75.7674	236.409
91560	75.5587	236.951
91561	75.3486	237.478
91562	75.1374	237.989
91563	74.9249	238.486
91564	74.7114	238.969
91565	74.4968	239.439
91566	74.2811	239.896
91567	74.0645	240.34
91568	73.8469	240.772
91569	73.6284	241.192
91570	73.409	241.602
91571	73.1888	242
91572	72.9678	242.388
91573	72.746	242.766
91574	72.5234	243.134
91575	72.3002	243.493
91576	72.0762	243.843
91577	71.8516	244.184
91578	71.6264	244.517
91579	71.4005	244.841
91580	71.174	245.158
91581	70.947	245.467
91582	70.7194	245.768
91583	70.4912	246.063
91584	70.2626	246.35
91585	70.0334	246.631
91586	69.8038	246.906
91587	69.5737	247.174
91588	69.3431	247.436
91589	69.1121	247.692
91590	68.8807	247.942
91591	68.6489	248.187
91592	68.4167	248.427
91593	68.1841	248.661
91594	67.9512	248.891
91595	67.7178	249.115
91596	67.4842	249.335
91597	67.2502	249.55
91598	67.0159	249.76
91599	66.7812	249.967
91600	66.5463	250.169
91601	66.311	250.367
91602	66.0755	250.561
91603	65.8397	250.751
91604	65.6036	250.937
91605	65.3673	251.12
91606	65.1307	251.299
91607	64.8938	251.475
91608	64.6567	251.647
91609	64.4194	251.816
91610	64.1818	251.982
91611	63.944	252.145
91612	63.706	252.305
91613	63.4678	252.462
